'Erecoil (keV)'    '68.75 keV inelastic'    'Erecoil (keV)'    'Erecoil (keV)'    'NR average'    'Erecoil (keV)'    '13.26 keV inelastic'    'Erecoil (keV)'    'threshold'    'Erecoil (keV)'    'NR low band'    'Erecoil (keV)'    'NR high band'    'Erecoil (keV)'
69.4986            0.991839                 1.02904            0.159922           14.2519         0.944224           2.1035                   1.49896            11.0197        -0.00202794        1.89725          1.50072            9.99176           1.5073
69.8626            0.987244                 1.31515            0.167136           14.3933         0.936084           2.11548                  1.48548            11.3235        0.00508184         1.92804          1.4886             10.3977           1.48881
70.2266            0.982648                 1.60126            0.174349           14.5347         0.927944           2.12746                  1.472              11.6309        0.0121827          1.95883          1.47648            10.7845           1.4703
70.5907            0.978053                 2.0573             0.181087           14.6761         0.919803           2.13943                  1.45851            11.9934        0.0191483          1.98962          1.46436            11.3552           1.44694
70.9944            0.973552                 2.45114            0.18775            14.8725         0.911724           2.15141                  1.44503            12.3254        0.0261916          2.02041          1.45224            12.0167           1.42316
71.4141            0.96911                  2.89932            0.193344           15.0765         0.903653           2.16339                  1.43155            12.6585        0.0332293          2.0512           1.44013            12.7205           1.40053
71.8389            0.964704                 3.39607            0.198764           15.2806         0.895582           2.17537                  1.41807            13.115         0.0399434          2.05803          1.42801            13.4695           1.37901
72.2689            0.960332                 3.93956            0.204011           15.4417         0.887461           2.18735                  1.40458            13.5195        0.0471839          2.05803          1.41589            14.2665           1.35857
72.7039            0.955996                 4.52794            0.209091           15.6025         0.879339           2.19933                  1.3911             13.9395        0.05427            2.07589          1.40377            15.1144           1.33918
73.1439            0.951694                 5.15937            0.214006           15.772          0.871354           2.22817                  1.37762            14.3757        0.0612048          2.09671          1.39165            16.016            1.32079
73.5888            0.947427                 5.83199            0.21876            15.9698         0.863711           2.26536                  1.36414            14.8287        0.0679911          2.11753          1.37953            16.9742           1.30339
74.0387            0.943195                 6.54398            0.223358           16.1731         0.855987           2.30256                  1.35066            15.299         0.0746319          2.13835          1.36741            17.9919           1.28694
74.4934            0.938998                 7.29347            0.227801           16.3825         0.848189           2.33975                  1.33718            15.7873        0.0811301          2.15917          1.35529            19.0719           1.27141
74.953             0.934835                 8.07864            0.232095           16.5983         0.840325           2.37694                  1.3237             16.2942        0.0874887          2.17998          1.34317            20.2171           1.25677
75.4173            0.930706                 8.89763            0.236242           16.821          0.832402           2.41414                  1.31022            16.8202        0.0937106          2.2008           1.33105            21.4303           1.24298
75.8863            0.926612                 9.7486             0.240246           17.051          0.824426           2.45133                  1.29674            17.366         0.0997989          2.22162          1.31893            22.7144           1.23001
76.3601            0.922551                 10.6297            0.244111           17.2887         0.816406           2.48852                  1.28326            17.9321        0.105756           2.24244          1.30681            24.0723           1.21783
76.8384            0.918525                 11.5391            0.24784            17.5346         0.808347           2.5123                   1.26978            18.5193        0.111586           2.26326          1.29469            25.5067           1.2064
77.3213            0.914532                 12.475             0.251437           17.7891         0.800258           2.53132                  1.2563             19.128         0.117291           2.28408          1.28257            27.0206           1.19571
77.8088            0.910574                 13.4354            0.254905           18.0526         0.792145           2.55034                  1.24282            19.7588        0.122873           2.3049           1.27045            28.6169           1.18571
78.3008            0.906649                 14.4186            0.258249           18.3256         0.784016           2.56937                  1.22933            20.4124        0.128337           2.32572          1.25833            30.2983           1.17636
78.7972            0.902757                 15.4227            0.261471           18.6085         0.775877           2.58839                  1.21585            21.0894        0.133685           2.34654          1.24621            32.0678           1.16765
79.2979            0.898899                 16.4459            0.264575           18.9017         0.767736           2.60741                  1.20237            21.7904        0.138919           2.388            1.2341             33.9281           1.15954
79.8031            0.895074                 17.4864            0.267566           19.2057         0.759601           2.62644                  1.18889            22.5159        0.144044           2.43472          1.22198            35.8822           1.15199
80.3125            0.891282                 18.5422            0.270445           19.5209         0.751477           2.64586                  1.17541            23.2665        0.149061           2.48143          1.20986            37.9329           1.14498
80.8262            0.887523                 19.6115            0.273218           19.8477         0.743372           2.67385                  1.16193            24.043         0.153974           2.52815          1.19775            40.0831           1.13846
81.3441            0.883798                 20.6925            0.275887           20.1866         0.735294           2.70186                  1.14845            24.8458        0.158786           2.57486          1.18563            42.3356           1.13242
81.8661            0.880105                 21.7834            0.278456           20.538          0.72725            2.73                     1.13497            25.6755        0.163499           2.62157          1.17352            44.6932           1.12681
82.3923            0.876444                 22.8823            0.280929           20.9023         0.719246           2.75835                  1.12149            26.5328        0.168117           2.65936          1.1614             47.1589           1.12161
82.9225            0.872817                 23.9874            0.28331            21.28           0.71129            2.78702                  1.10801            27.4183        0.172642           2.68848          1.14928            49.7355           1.11678
83.4567            0.869222                 25.0968            0.285601           21.6715         0.703389           2.81609                  1.09452            28.3246        0.17687            2.71759          1.13716            52.4259           1.11229
83.995             0.865659                 26.2086            0.287807           22.0772         0.69555            2.84566                  1.08104            29.2159        0.180621           2.74671          1.12504            55.2329           1.10812
84.5371            0.862128                 27.3211            0.289931           22.4976         0.68778            2.87582                  1.06756            30.0816        0.184727           2.77582          1.11292            58.1593           1.10421
85.0831            0.85863                  28.4324            0.291977           22.9331         0.680087           2.90666                  1.05408            31.0026        0.188528           2.81103          1.10084            61.2081           1.10056
85.6329            0.855163                 29.5406            0.293948           23.3841         0.672477           2.93829                  1.0406             31.9265        0.192183           2.85418          1.08879            64.382            1.09711
86.1865            0.851728                 30.6439            0.295847           23.8511         0.664958           2.97079                  1.02712            32.8532        0.195698           2.89778          1.07671            67.5302           1.0945
86.7439            0.848325                 31.7404            0.29768            24.3345         0.657537           3.00425                  1.01364            33.783         0.199077           2.942            1.06463            70.1079           1.09237
87.3049            0.844954                 32.8284            0.299448           24.8347         0.650221           3.03877                  1.00015            34.7159        0.202326           2.98698          1.05253            72.6876           1.09017
87.8696            0.841615                 33.9059            0.301156           25.3522         0.643017           3.07445                  0.986673           35.652         0.205452           3.03288          1.04041            75.2759           1.08848
88.4378            0.838306                 34.9711            0.302807           25.8873         0.635933           3.11137                  0.973192           36.5914        0.208459           3.07985          1.02829            77.8649           1.08686
89.0096            0.835029                 36.0223            0.304405           26.4406         0.628975           3.14964                  0.959711           37.5344        0.211353           3.12805          1.01615            80.4545           1.08532
89.5849            0.831783                 37.0574            0.305953           27.0125         0.62215            3.18933                  0.946231           38.4809        0.214139           3.17764          1.00401            83.0451           1.08387
90.1637            0.828568                 38.0748            0.307455           27.6034         0.615466           3.23056                  0.932751           39.4311        0.216823           3.22877          0.991864           85.6366           1.08252
90.7459            0.825385                 39.0724            0.308915           28.2136         0.60893            3.2734                   0.919271           40.3851        0.219411           3.28159          0.979712           88.2292           1.08129
91.3314            0.822232                 40.0486            0.310336           28.8053         0.602244           3.31797                  0.905791           41.343         0.221908           3.33627          0.967557           90.8231           1.08018
91.9202            0.819109                 41.0015            0.311722           29.3955         0.595271           3.36433                  0.892312           42.305         0.224319           3.39295          0.955401           93.4183           1.07919
92.5123            0.816017                 41.9291            0.313075           30.0894         0.588766           3.4126                   0.878833           43.2711        0.226649           3.45178          0.943245           96.015            1.07836
93.1076            0.812956                 42.8297            0.314401           30.83           0.582143           3.46287                  0.865355           44.2416        0.228906           3.51293          0.931091           98.6133           1.07767
93.7061            0.809925                 43.7015            0.315703           31.6713         0.575468           3.51522                  0.851878           45.2163        0.231093           3.57656          0.918941           101.202           1.07652
94.3076            0.806925                 44.5425            0.316983           32.5156         0.56908            3.56976                  0.838401           46.1956        0.233216           3.6428           0.906796           103.79            1.07531
94.9123            0.803954                 45.4638            0.318149           33.364          0.562969           3.62657                  0.824924           47.1795        0.235282           3.71183          0.894658           106.387           1.07472
95.52              0.801013                 46.4948            0.31921            34.2171         0.557126           3.68576                  0.811449           48.1682        0.237295           3.78379          0.882529           108.984           1.07405
96.1307            0.798103                 47.5258            0.320271           35.0759         0.551542           3.7474                   0.797974           49.1616        0.23926            3.85884          0.87041            111.58            1.07334
96.7443            0.795222                 48.5568            0.321331           35.9411         0.546206           3.8116                   0.7845             50.1601        0.241184           3.93713          0.858303           114.176           1.07265
97.3608            0.79237                  49.586             0.322477           36.8136         0.54111            3.87846                  0.771026           51.1636        0.243072           4.01882          0.846209           116.773           1.07204
97.9801            0.789549                 50.6142            0.323707           37.6942         0.536243           3.94805                  0.757554           52.1723        0.24493            4.10407          0.83413            119.371           1.07156
98.6022            0.786756                 51.6433            0.324922           38.5836         0.531595           4.02049                  0.744082           53.1863        0.246762           4.19302          0.822067           121.971           1.07128
99.2271            0.783993                 52.6726            0.326115           39.4829         0.527157           4.09585                  0.730612           54.2057        0.248574           4.28584          0.810023           124.561           1.07017
99.8546            0.781259                 53.7023            0.327289           40.3927         0.52292            4.17424                  0.717142           55.2294        0.250173           4.38268          0.797999           127.16            1.07017
100.485            0.778555                 54.7323            0.328443           41.3139         0.518873           4.25575                  0.703673           56.2438        0.251492           4.49544          0.785928           129.758           1.07001
101.118            0.775879                 55.7626            0.329579           42.2473         0.515007           4.34046                  0.690206           57.2435        0.253307           4.61268          0.773837           132.353           1.06947
101.753            0.773232                 56.7932            0.330695           43.1938         0.511312           4.42849                  0.67674            58.2593        0.254577           4.72992          0.761746           134.949           1.06897
102.391            0.770613                 57.824             0.331793           44.1541         0.507779           4.51991                  0.663274           59.2566        0.25653            4.84716          0.749655           137.546           1.06851
103.031            0.768024                 58.8552            0.332874           45.1291         0.504398           4.61482                  0.64981            60.2724        0.258059           4.93135          0.73755            140.142           1.06808
103.674            0.765462                 59.8867            0.333937           46.1197         0.501159           4.71332                  0.636347           61.2878        0.259545           5.02639          0.725451           142.74            1.06768
104.319            0.762929                 60.9184            0.334983           47.1266         0.498053           4.8155                   0.622886           62.3027        0.260989           5.16416          0.713375           145.337           1.06732
104.967            0.760425                 61.9504            0.336013           48.1506         0.495069           4.92146                  0.609426           63.3173        0.262394           5.31209          0.701301           147.935           1.06699
105.616            0.757948                 62.9826            0.337027           49.1927         0.492199           5.03128                  0.595967           64.3316        0.263762           5.47122          0.689232           150.533           1.06668
106.268            0.7555                   64.0151            0.338025           50.2536         0.489432           5.14506                  0.58251            65.3459        0.265094           5.64256          0.677172           153.132           1.06641
106.922            0.753079                 65.0478            0.339007           51.3341         0.48676            5.26289                  0.569054           66.3601        0.266394           5.82715          0.665121           155.731           1.06616
107.579            0.750686                 66.0807            0.339975           52.4351         0.484171           5.38487                  0.555599           67.3743        0.267662           6.02601          0.653083           158.33            1.06593
108.237            0.748321                 67.1139            0.340929           53.5574         0.481657           5.51109                  0.542146           68.3887        0.268902           6.24016          0.641059           160.93            1.06573
108.897            0.745983                 68.1473            0.341869           54.7018         0.479208           5.64165                  0.528695           69.4034        0.270116           6.47064          0.629053           163.529           1.06555
109.56             0.743673                 69.1808            0.342795           55.8691         0.476813           5.79137                  0.515255           70.4185        0.271305           6.71846          0.617066           166.129           1.06539
110.224            0.74139                  70.2146            0.343708           57.0602         0.474465           5.97145                  0.501835           71.434         0.272471           6.98466          0.605101           168.729           1.06525
110.89             0.739134                 71.2486            0.344609           58.1774         0.472578           6.15153                  0.488415           72.4501        0.273618           7.27026          0.59316            171.329           1.06512
111.558            0.736905                 72.2827            0.345498           59.286          0.470702           6.35203                  0.47501            73.4669        0.274746           7.57629          0.581246           173.929           1.06502
112.228            0.734703                 73.317             0.346374           60.3909         0.468714           6.55496                  0.461607           74.4844        0.275858           7.90377          0.569361           176.53            1.06492
112.9              0.732529                 74.3515            0.34724            61.5083         0.467174           6.75789                  0.448204           75.5028        0.276957           8.25374          0.557508           179.119           1.06382
113.573            0.73038                  75.3862            0.348094           62.6339         0.465927           6.96083                  0.434801           76.5222        0.278044           8.62721          0.545688           181.718           1.06382
114.248            0.728259                 76.4209            0.348938           63.7595         0.46468            7.16297                  0.422084           77.5427        0.279121           9.04033          0.533937           184.317           1.06382
114.924            0.726164                 77.4559            0.349772           64.8845         0.463391           7.37456                  0.409649           78.5643        0.280191           9.54973          0.522385           186.915           1.06382
115.602            0.724095                 78.4909            0.350597           66.0081         0.461991           7.602                    0.396893           79.5872        0.281256           10.0768          0.51088            189.514           1.06382
116.282            0.722052                 79.5261            0.351412           67.1329         0.460663           7.84861                  0.383863           80.6115        0.282317           10.7179          0.499673           192.113           1.06382
116.963            0.720036                 80.5614            0.352219           68.2588         0.459404           8.11772                  0.370604           81.6373        0.283377           11.4179          0.488661           194.712           1.06382
117.646            0.718045                 81.5968            0.353017           69.3858         0.458211           8.41264                  0.357164           82.6646        0.284439           12.1815          0.477655           197.3             1.06276
118.33             0.716081                 82.6323            0.353808           70.5139         0.457083           8.7367                   0.343587           83.6936        0.285503           13.0757          0.466481           199.899           1.06276
119.015            0.714142                 83.6679            0.354591           71.643          0.456017           9.09322                  0.329922           84.7244        0.286573           14.0882          0.456447           5.08892           0.00772824
119.702            0.712229                 84.7036            0.355367           72.773          0.455009           9.48551                  0.316213           85.7476        0.287742           15.2097          0.447495           5.18512           0.0264365
120.389            0.710341                 85.7394            0.356136           73.9038         0.454058           9.91691                  0.302508           86.7692        0.288827           16.4313          0.439566           5.28132           0.0451447
121.078            0.708479                 86.7752            0.356899           75.0355         0.453161           10.3907                  0.288852           87.7915        0.289878           17.7436          0.4326             5.39755           0.0638469
121.768            0.706642                 87.8111            0.357657           76.168          0.452315           10.9103                  0.275292           88.8138        0.290929           19.1376          0.426539           5.51555           0.0825487
122.46             0.704831                 88.8471            0.35841            77.3011         0.451517           11.4789                  0.261875           89.8385        0.291753           20.604           0.421323           5.63262           0.101251
123.152            0.703044                 89.8831            0.359157           78.435          0.450765           12.1                     0.248647           90.864         0.292523           22.1337          0.416894           5.74844           0.119953
123.845            0.701283                 90.9191            0.3599             79.5694         0.450057           12.7767                  0.235653           91.8898        0.293303           23.7176          0.413193           5.86425           0.138656
124.539            0.699546                 91.9552            0.360639           80.7043         0.44939            13.5124                  0.222941           92.9158        0.294093           25.3464          0.41016            6.02034           0.157343
125.234            0.697834                 92.9912            0.361375           81.8397         0.44876            14.3105                  0.210557           93.9419        0.294891           27.011           0.407737           6.16382           0.17598
125.93             0.696147                 94.0273            0.362108           82.9756         0.448167           15.1743                  0.198547           94.9683        0.295696           28.7022          0.405865           6.31036           0.194635
126.627            0.694484                 95.0634            0.362838           84.1118         0.447606           16.1071                  0.186957           95.9948        0.296505           30.411           0.404485           6.46154           0.213305
127.325            0.692845                 96.0995            0.363565           85.2483         0.447076           17.1122                  0.175835           97.0214        0.297318           32.128           0.403537           6.61847           0.231986
128.023            0.691231                 97.1356            0.364291           86.385          0.446573           18.1929                  0.165225           98.0482        0.298134           33.8442          0.402964           6.78224           0.250677
128.722            0.68964                  98.1717            0.365016           87.522          0.446096           19.3526                  0.155175           99.0752        0.29895            35.5503          0.402705           6.95393           0.269373
129.422            0.688074                 99.2077            0.365739           88.6591         0.445641           20.5946                  0.145731           100.102        0.299766           37.2373          0.402703           7.13465           0.288071
130.122            0.686532                 100.244            0.366462           89.7962         0.445207           21.9222                  0.136939           101.129        0.300581           38.8959          0.402897           7.32548           0.306769
130.822            0.685014                 101.28             0.367185           90.9334         0.444789           23.3442                  0.128766           102.157        0.301392           40.5169          0.403229           7.52753           0.325464
131.523            0.683519                 102.316            0.367908           92.0706         0.444387           24.8276                  0.120544           103.184        0.302199           42.1724          0.403347           7.74189           0.344152
132.225            0.682047                 103.351            0.368632           93.2077         0.443997           26.4378                  0.113695           104.211        0.303              43.8549          0.403347           7.96964           0.362829
132.923            0.680423                 104.387            0.369358           94.3446         0.443616           28.0624                  0.107              105.239        0.303794           45.5316          0.403941           8.21189           0.381494
133.62             0.67875                  105.423            0.370085           95.4832         0.443573           29.7145                  0.100689           106.266        0.304579           47.2094          0.404417           8.46972           0.400143
134.334            0.677543                 106.461            0.370549           96.6214         0.443444           31.4192                  0.0951253          107.294        0.305354           48.8891          0.404841           8.74424           0.418772
135.051            0.676391                 107.497            0.371094           97.7569         0.442822           33.14                    0.0898616          108.321        0.306118           50.5663          0.405686           9.03653           0.437379
135.758            0.674936                 108.533            0.371604           98.8941         0.442405           34.8829                  0.085609           109.349        0.30687            52.2438          0.406535           9.34769           0.45596
136.466            0.673499                 109.573            0.371957           100.033         0.442182           36.6514                  0.0815987          110.376        0.307607           53.9216          0.407388           9.67882           0.474513
137.174            0.67208                  110.61             0.37262            101.171         0.441972           38.4423                  0.0778273          111.405        0.308102           55.5995          0.408245           10.031            0.493034
137.883            0.670678                 111.648            0.373277           102.31          0.441773           40.2526                  0.0742914          112.433        0.308591           57.2777          0.409108           10.4053           0.51152
138.593            0.669293                 112.685            0.373928           103.449         0.441587           42.079                   0.0709875          113.455        0.309638           58.956           0.409976           10.829            0.529968
139.303            0.667925                 113.723            0.374574           104.588         0.441412           43.9186                  0.0679121          114.482        0.31021            60.6345          0.410849           11.3136           0.548359
140.013            0.666574                 114.761            0.375215           105.726         0.441248           45.7681                  0.065062           115.512        0.310544           62.313           0.411729           11.8201           0.56672
140.724            0.66524                  115.799            0.37585            106.865         0.441095           47.6244                  0.0624335          116.538        0.31127            63.9916          0.412615           12.3312           0.585076
141.435            0.663922                 116.837            0.376481           108.004         0.440953           49.4845                  0.0600234          117.565        0.311987           65.6703          0.413509           12.895            0.603357
142.147            0.66262                  117.874            0.377106           109.143         0.440822           51.3452                  0.0578282          118.592        0.312697           67.3489          0.41441            13.5186           0.621532
142.86             0.661335                 118.912            0.377726           110.282         0.440701           53.2034                  0.0558445          119.619        0.313399           69.0275          0.415319           14.2089           0.63957
143.573            0.660065                 119.95             0.378341           111.42          0.440591           55.056                   0.0540688          120.646        0.314094           70.706           0.416236           14.9731           0.65744
144.286            0.658811                 120.988            0.37895            112.559         0.440491           56.8998                  0.0524977          121.673        0.31478            72.3844          0.417161           15.8184           0.675109
145                0.657573                 122.027            0.379555           113.698         0.4404             58.7317                  0.0511278          122.701        0.31546            74.0626          0.418096           16.7518           0.692547
145.714            0.65635                  123.065            0.380155           114.837         0.44032            60.5768                  0.0492304          123.728        0.316132           75.7407          0.419041           17.7805           0.709722
146.429            0.655143                 124.103            0.38075            115.976         0.440249           62.4401                  0.0480393          124.756        0.316796           77.4186          0.419995           18.9114           0.726603
147.144            0.65395                  125.141            0.381341           117.114         0.440187           64.301                   0.0466432          125.784        0.317454           79.0963          0.42096            20.1658           0.743077
147.86             0.652772                 126.179            0.381926           118.253         0.440135           66.1606                  0.0451383          126.812        0.318104           80.7737          0.421935           21.5984           0.758692
148.576            0.651609                 127.218            0.382507           119.392         0.440091           68.0219                  0.0437411          127.841        0.318748           82.4507          0.422922           23.1622           0.773638
149.292            0.650461                 128.256            0.383083           120.531         0.440057           69.8847                  0.0424453          128.869        0.319385           84.1275          0.42392            24.815            0.788227
150.009            0.649327                 129.294            0.383655           121.67          0.440031           71.7489                  0.0412446          129.898        0.320015           85.8038          0.42493            26.6418           0.801698
150.726            0.648206                 130.333            0.384222           122.809         0.440013           73.6143                  0.0401327          130.926        0.320639           87.4798          0.425953           28.59             0.814018
151.444            0.6471                   131.371            0.384785           123.948         0.440003           75.4807                  0.0391031          131.955        0.321256           89.1554          0.426989           30.6484           0.825247
152.162            0.646008                 132.41             0.385343           125.086         0.440002           77.348                   0.0381496          132.984        0.321867           90.8304          0.428038           32.8055           0.835445
152.881            0.644929                 133.448            0.385897           126.225         0.440008           79.2161                  0.0372658          134.014        0.322472           92.5076          0.428763           35.05             0.844674
153.6              0.643864                 134.487            0.386446           127.364         0.440022           81.0847                  0.0364453          135.043        0.32307            94.1796          0.429826           37.3704           0.852992
154.319            0.642812                 135.526            0.386991           128.503         0.440043           82.9537                  0.0356819          136.072        0.323663           95.8586          0.430268           39.7555           0.86046
155.039            0.641773                 136.564            0.387532           129.642         0.440072           84.823                   0.0349691          137.102        0.32425            97.5339          0.431194           42.1938           0.867138
155.759            0.640747                 137.603            0.388069           130.781         0.440107           86.6923                  0.0343007          138.132        0.324831           99.2095          0.432113           44.674            0.873086
156.479            0.639734                 138.642            0.388602           131.92          0.440149           88.5616                  0.0336703          139.161        0.325406           100.885          0.433027           47.1847           0.878365
157.2              0.638733                 139.681            0.38913            133.059         0.440198           90.4306                  0.0330716          140.191        0.325976           102.562          0.433935           49.7145           0.883035
157.921            0.637744                 140.72             0.389655           134.197         0.440254           92.298                   0.0322161          141.221        0.32654            104.238          0.434837           52.2521           0.887155
158.642            0.636768                 141.758            0.390175           135.336         0.440315           94.1649                  0.0312555          142.251        0.327099           105.915          0.435733           54.786            0.890787
159.364            0.635804                 142.797            0.390692           136.475         0.440383           96.0342                  0.0307935          143.282        0.327653           107.592          0.436623           57.3054           0.894774
160.086            0.634851                 143.836            0.391205           137.614         0.440456           97.9035                  0.0303131          144.312        0.328202           109.269          0.437506           59.8782           0.897418
160.808            0.63391                  144.875            0.391714           138.753         0.440536           99.7722                  0.0297311          145.342        0.328745           110.946          0.438384           62.4476           0.900217
161.531            0.632981                 145.914            0.39222            139.892         0.44062            101.643                  0.0295542          146.373        0.329284           112.624          0.439256           65.0203           0.902864
162.254            0.632063                 146.953            0.392721           141.031         0.44071            103.513                  0.0289733          147.403        0.329818           114.302          0.440122           67.5736           0.905252
162.978            0.631156                 147.992            0.393219           142.169         0.440805           105.383                  0.0284132          148.434        0.330348           115.98           0.440982           70.1431           0.907461
163.701            0.63026                  149.032            0.393714           143.308         0.440905           107.253                  0.0278732          149.465        0.330873           117.658          0.441836           72.7264           0.9095
164.425            0.629374                 150.071            0.394205           144.447         0.44101            109.123                  0.0273528          150.495        0.331393           119.337          0.442683           75.3204           0.911377
165.149            0.628499                 151.11             0.394692           145.586         0.441119           110.993                  0.0268513          151.526        0.331909           121.015          0.443525           77.9219           0.913097
165.874            0.627635                 152.149            0.395176           146.725         0.441232           112.863                  0.0263683          152.557        0.332421           122.694          0.444361           80.5277           0.914665
166.598            0.626781                 153.188            0.395657           147.864         0.441349           114.733                  0.025903           153.588        0.332929           124.373          0.445191           83.1347           0.916089
167.323            0.625937                 154.228            0.396134           149.002         0.441471           116.603                  0.0254549          154.619        0.333433           126.052          0.446015           85.7397           0.917372
168.049            0.625102                 155.267            0.396608           150.141         0.441596           118.474                  0.0250235          155.65         0.333933           127.732          0.446832           88.3394           0.918522
168.774            0.624278                 156.306            0.397079           151.28          0.441724           120.344                  0.024608           156.681        0.33443            129.411          0.447644           90.9308           0.919545
169.5              0.623462                 157.346            0.397547           152.419         0.441856           122.215                  0.024208           157.712        0.334923           131.091          0.44845            93.5107           0.920445
170.226            0.622657                 158.385            0.398011           153.558         0.441991           124.086                  0.0238229          158.744        0.335412           132.77           0.44925            96.0789           0.921995
170.952            0.62186                  159.425            0.398473           154.696         0.442129           125.956                  0.0234519          159.775        0.335898           134.45           0.450044           98.6709           0.922681
171.678            0.621072                 160.464            0.398931           155.835         0.44227            127.827                  0.0230947          160.806        0.33638            136.13           0.450831           101.262           0.92367
172.405            0.620293                 161.503            0.399387           156.974         0.442413           129.698                  0.0227504          161.837        0.336859           137.81           0.451613           103.859           0.92438
173.132            0.619523                 162.543            0.399839           158.112         0.442558           131.569                  0.0224187          162.869        0.337336           139.49           0.452389           106.458           0.925085
173.859            0.618761                 163.583            0.400289           159.251         0.442706           133.44                   0.0220988          163.9          0.337809           141.171          0.453159           109.057           0.925792
174.586            0.618007                 164.622            0.400736           160.39          0.442856           135.311                  0.0217902          164.931        0.33828            142.851          0.453923           111.655           0.926508
175.313            0.617261                 165.662            0.401181           161.529         0.443007           137.182                  0.0214923          165.963        0.338747           144.531          0.45468            114.253           0.92724
176.041            0.616523                 166.701            0.401622           162.667         0.44316            139.054                  0.0212046          166.994        0.339212           146.212          0.455432           116.848           0.927996
176.768            0.615793                 167.741            0.402061           163.806         0.443314           140.925                  0.0209263          168.025        0.339675           147.892          0.456178           119.444           0.928337
177.496            0.615071                 168.781            0.402498           164.945         0.44347            142.796                  0.0206569          169.057        0.340135           149.573          0.456918           122.042           0.928428
178.224            0.614355                 169.82             0.402932           166.083         0.443626           144.667                  0.0203959          170.088        0.340593           151.254          0.457652           124.63            0.929594
178.953            0.613647                 170.86             0.403363           167.222         0.443784           146.539                  0.0201426          171.119        0.341049           152.934          0.45838            127.227           0.929916
179.681            0.612946                 171.9              0.403792           168.36          0.443941           148.41                   0.0198965          172.15         0.341503           154.615          0.459101           129.825           0.930253
180.409            0.612252                 172.939            0.404219           169.499         0.4441             150.282                  0.0196569          173.182        0.341954           156.296          0.459817           132.423           0.930602
181.138            0.611564                 173.979            0.404643           170.638         0.444258           152.153                  0.0194233          174.213        0.342404           157.976          0.460527           135.02            0.930958
181.867            0.610883                 175.019            0.405065           171.776         0.444417           154.025                  0.019195           175.244        0.342853           159.657          0.461231           137.618           0.931319
182.595            0.610208                 176.059            0.405485           172.915         0.444575           155.896                  0.0189715          176.275        0.343299           161.338          0.461929           140.215           0.931679
183.324            0.609539                 177.099            0.405903           174.053         0.444733           157.768                  0.0187522          177.306        0.343744           163.018          0.46262            142.813           0.932036
184.053            0.608876                 178.139            0.406318           175.192         0.44489            159.639                  0.0185365          178.338        0.344188           164.699          0.463306           145.411           0.932386
184.783            0.608219                 179.178            0.406732           176.33          0.445047           161.511                  0.0183239          179.369        0.344631           166.38           0.463986           148.009           0.932725
185.512            0.607567                 180.218            0.407143           177.469         0.445202           163.382                  0.0181136          180.4          0.345072           168.06           0.46466            150.608           0.933049
186.241            0.606921                 181.258            0.407553           178.607         0.445357           165.254                  0.0179051          181.431        0.345512           169.741          0.465328           153.206           0.933355
186.971            0.60628                  182.298            0.407961           179.745         0.44551            167.126                  0.0176979          182.461        0.345952           171.421          0.46599            155.805           0.933638
187.7              0.605644                 183.338            0.408367           180.884         0.445661           168.997                  0.0174913          183.492        0.34639            173.102          0.466646           158.404           0.933896
188.43             0.605013                 184.378            0.408771           182.022         0.445811           170.869                  0.0172848          184.523        0.346828           174.782          0.467295           161.003           0.934124
189.159            0.604386                 185.418            0.409173           183.16          0.445959           172.74                   0.0170777          185.554        0.347265           176.462          0.467939           163.602           0.934318
189.889            0.603764                 186.458            0.409574           184.299         0.446105           174.612                  0.0168695          186.584        0.347702           178.142          0.468577           166.202           0.934475
190.618            0.603146                 187.498            0.409973           185.437         0.446248           176.483                  0.0166596          187.615        0.348138           179.822          0.469209           168.802           0.934592
191.348            0.602532                 188.538            0.41037            186.575         0.446389           178.355                  0.0164473          188.645        0.348574           181.502          0.469835           171.402           0.934664
192.078            0.601923                 189.578            0.410766           187.713         0.446527           180.227                  0.0162321          189.676        0.34901            183.182          0.470455           174.002           0.934725
192.808            0.601317                 190.618            0.411161           188.852         0.446662           182.098                  0.0160134          190.706        0.349446           184.862          0.471069           176.591           0.935741
193.537            0.600714                 191.658            0.411554           189.989         0.446928           183.97                   0.0157907          191.736        0.349882           186.542          0.471677           179.19            0.935741
194.267            0.600115                 192.698            0.411946           191.125         0.44756            185.841                  0.0155632          192.766        0.350319           188.221          0.472279           181.789           0.935741
194.997            0.599519                 193.739            0.412336           192.262         0.447822           187.713                  0.0153305          193.796        0.350755           189.9            0.472875           184.387           0.935741
195.727            0.598927                 194.779            0.412726           193.401         0.447822           189.584                  0.0150919          194.826        0.351192           191.58           0.473464           186.986           0.935741
196.456            0.598337                 195.819            0.413114           194.54          0.447822           191.455                  0.014906           195.856        0.35163            193.259          0.474048           189.585           0.935741
197.186            0.597753                 196.859            0.4135             195.677         0.448046           193.327                  0.014906           196.886        0.352068           194.938          0.474626           192.173           0.936804
197.916            0.597172                 197.899            0.413886           196.813         0.448674           195.199                  0.014906           197.915        0.352507           196.616          0.475198           194.772           0.936804
198.65             0.597056                 198.929            0.414977           197.951         0.448877           197.07                   0.014906           198.947        0.352575           198.287          0.476402           197.371           0.936804
199.384            0.597056                 199.97             0.414993           199.089         0.448877           198.942                  0.014906           199.97         0.353615           199.97           0.476402           199.97            0.936804
